File: data/cv/0622/750 rpm CV.txt
June 22, 2016   14:38:46
Cyclic Voltammetry
File: c:\users\potentio2\desktop\suda\20160622\750 rpm cv.txt
Data Source:  Experiment
Instrument Model:  CHI7082E
Header:
Note:

Init E (V) = 0
High E (V) = 0.9
Low E (V) = -0.6
Init P/N = P
Scan Rate (V/s) = 0.01
Segment = 6
Sample Interval (V) = 0.001
Quiet Time (sec) = 2
Sensitivity (A/V) = 0.001
Sens 2 (A/V) = 0.001

Segment 1:

Segment 2:

Segment 3:
Ep = 0.156V
ip = 6.743e-6A
Ah = 7.742e-5C

Segment 4:

Segment 5:
Ep = 0.159V
ip = 7.667e-6A
Ah = 8.570e-5C

Segment 6:

Current 2:

Segment 1:

Segment 2:
Ep = 0.041V
ip = -3.043e-8A
Ah = -1.289e-7C

Segment 3:

Segment 4:

Segment 5:

Segment 6:
Ep = -0.163V
ip = -2.353e-8A
Ah = -6.231e-8C

Potential/V	i1/A	i2/A

0.000	-4.111e-5	-7.582e-6
0.028	1.616e-5	-7.552e-6
0.056	2.554e-5	-7.574e-6
0.084	2.906e-5	-7.593e-6
0.112	3.056e-5	-7.586e-6
0.140	3.132e-5	-7.575e-6
0.168	3.157e-5	-7.579e-6
0.196	3.173e-5	-7.596e-6
0.224	3.180e-5	-7.598e-6
0.252	3.180e-5	-7.595e-6
0.280	3.176e-5	-7.599e-6
0.308	3.187e-5	-7.602e-6
0.336	3.167e-5	-7.609e-6
0.364	3.172e-5	-7.606e-6
0.392	3.156e-5	-7.619e-6
0.420	3.168e-5	-7.623e-6
0.448	3.173e-5	-7.620e-6
0.476	3.202e-5	-7.629e-6
0.504	3.231e-5	-7.633e-6
0.532	3.290e-5	-7.634e-6
0.560	3.350e-5	-7.638e-6
0.588	3.469e-5	-7.650e-6
0.616	3.641e-5	-7.645e-6
0.644	3.864e-5	-7.651e-6
0.672	4.133e-5	-7.649e-6
0.700	4.429e-5	-7.662e-6
0.728	4.791e-5	-7.657e-6
0.756	5.304e-5	-7.657e-6
0.784	6.001e-5	-7.663e-6
0.812	6.912e-5	-7.691e-6
0.840	8.030e-5	-7.641e-6
0.868	9.298e-5	-7.663e-6
0.896	1.072e-4	-7.688e-6
0.876	2.759e-5	-7.681e-6
0.848	8.267e-6	-7.679e-6
0.820	-1.151e-6	-7.668e-6
0.792	-6.589e-6	-7.672e-6
0.764	-1.021e-5	-7.766e-6
0.736	-1.254e-5	-7.746e-6
0.708	-1.422e-5	-7.760e-6
0.680	-1.545e-5	-7.760e-6
0.652	-1.647e-5	-7.751e-6
0.624	-1.727e-5	-7.751e-6
0.596	-1.808e-5	-7.755e-6
0.568	-1.869e-5	-7.761e-6
0.540	-1.939e-5	-7.760e-6
0.512	-2.008e-5	-7.745e-6
0.484	-2.066e-5	-7.747e-6
0.456	-2.119e-5	-7.743e-6
0.428	-2.176e-5	-7.753e-6
0.400	-2.226e-5	-7.749e-6
0.372	-2.264e-5	-7.748e-6
0.344	-2.278e-5	-7.753e-6
0.316	-2.313e-5	-7.753e-6
0.288	-2.364e-5	-7.762e-6
0.260	-2.437e-5	-7.755e-6
0.232	-2.509e-5	-7.751e-6
0.204	-2.599e-5	-7.748e-6
0.176	-2.667e-5	-7.743e-6
0.148	-2.753e-5	-7.737e-6
0.120	-2.843e-5	-7.753e-6
0.092	-2.947e-5	-7.766e-6
0.064	-3.047e-5	-7.763e-6
0.036	-3.161e-5	-7.762e-6
0.008	-3.253e-5	-7.757e-6
-0.020	-3.333e-5	-7.764e-6
-0.048	-3.368e-5	-7.766e-6
-0.076	-3.378e-5	-7.762e-6
-0.104	-3.358e-5	-7.765e-6
-0.132	-3.346e-5	-7.769e-6
-0.160	-3.359e-5	-7.766e-6
-0.188	-3.453e-5	-7.759e-6
-0.216	-3.654e-5	-7.752e-6
-0.244	-4.007e-5	-7.749e-6
-0.272	-4.499e-5	-7.753e-6
-0.300	-5.083e-5	-7.768e-6
-0.328	-5.740e-5	-7.760e-6
-0.356	-6.465e-5	-7.751e-6
-0.384	-7.241e-5	-7.748e-6
-0.412	-8.055e-5	-7.754e-6
-0.440	-8.836e-5	-7.788e-6
-0.468	-9.555e-5	-7.773e-6
-0.496	-1.016e-4	-7.765e-6
-0.524	-1.063e-4	-7.751e-6
-0.552	-1.097e-4	-7.752e-6
-0.580	-1.119e-4	-7.763e-6
-0.592	-8.921e-5	-7.765e-6
-0.564	-5.857e-5	-7.743e-6
-0.536	-4.080e-5	-7.731e-6
-0.508	-2.800e-5	-7.741e-6
-0.480	-1.807e-5	-7.750e-6
-0.452	-9.719e-6	-7.777e-6
-0.424	-2.683e-6	-7.680e-6
-0.396	3.396e-6	-7.687e-6
-0.368	8.494e-6	-7.697e-6
-0.340	1.308e-5	-7.679e-6
-0.312	1.668e-5	-7.690e-6
-0.284	1.990e-5	-7.703e-6
-0.256	2.248e-5	-7.695e-6
-0.228	2.473e-5	-7.693e-6
-0.200	2.650e-5	-7.697e-6
-0.172	2.806e-5	-7.713e-6
-0.144	2.945e-5	-7.722e-6
-0.116	3.111e-5	-7.682e-6
-0.088	3.294e-5	-7.690e-6
-0.060	3.503e-5	-7.706e-6
-0.032	3.726e-5	-7.689e-6
-0.004	3.994e-5	-7.697e-6
0.024	4.283e-5	-7.691e-6
0.052	4.577e-5	-7.699e-6
0.080	4.896e-5	-7.717e-6
0.108	5.219e-5	-7.693e-6
0.136	5.495e-5	-7.704e-6
0.164	5.579e-5	-7.695e-6
0.192	5.289e-5	-7.700e-6
0.220	4.970e-5	-7.697e-6
0.248	4.760e-5	-7.701e-6
0.276	4.646e-5	-7.701e-6
0.304	4.569e-5	-7.707e-6
0.332	4.511e-5	-7.700e-6
0.360	4.418e-5	-7.697e-6
0.388	4.309e-5	-7.700e-6
0.416	4.203e-5	-7.688e-6
0.444	4.109e-5	-7.690e-6
0.472	4.063e-5	-7.698e-6
0.500	4.070e-5	-7.703e-6
0.528	4.121e-5	-7.689e-6
0.556	4.234e-5	-7.695e-6
0.584	4.421e-5	-7.710e-6
0.612	4.722e-5	-7.703e-6
0.640	5.090e-5	-7.689e-6
0.668	5.460e-5	-7.701e-6
0.696	5.781e-5	-7.708e-6
0.724	6.141e-5	-7.709e-6
0.752	6.528e-5	-7.719e-6
0.780	7.039e-5	-7.676e-6
0.808	7.672e-5	-7.689e-6
0.836	8.442e-5	-7.696e-6
0.864	9.375e-5	-7.694e-6
0.892	1.062e-4	-7.710e-6
0.880	3.569e-5	-7.698e-6
0.852	1.392e-5	-7.695e-6
0.824	3.241e-6	-7.690e-6
0.796	-3.211e-6	-7.699e-6
0.768	-7.404e-6	-7.687e-6
0.740	-1.034e-5	-7.786e-6
0.712	-1.248e-5	-7.775e-6
0.684	-1.406e-5	-7.779e-6
0.656	-1.518e-5	-7.781e-6
0.628	-1.632e-5	-7.769e-6
0.600	-1.723e-5	-7.779e-6
0.572	-1.810e-5	-7.770e-6
0.544	-1.890e-5	-7.779e-6
0.516	-1.973e-5	-7.778e-6
0.488	-2.057e-5	-7.775e-6
0.460	-2.141e-5	-7.776e-6
0.432	-2.214e-5	-7.764e-6
0.404	-2.302e-5	-7.785e-6
0.376	-2.354e-5	-7.771e-6
0.348	-2.374e-5	-7.777e-6
0.320	-2.379e-5	-7.771e-6
0.292	-2.416e-5	-7.772e-6
0.264	-2.470e-5	-7.784e-6
0.236	-2.547e-5	-7.765e-6
0.208	-2.619e-5	-7.764e-6
0.180	-2.703e-5	-7.765e-6
0.152	-2.781e-5	-7.764e-6
0.124	-2.866e-5	-7.769e-6
0.096	-2.953e-5	-7.783e-6
0.068	-3.043e-5	-7.770e-6
0.040	-3.130e-5	-7.771e-6
0.012	-3.206e-5	-7.759e-6
-0.016	-3.256e-5	-7.779e-6
-0.044	-3.272e-5	-7.762e-6
-0.072	-3.244e-5	-7.781e-6
-0.100	-3.198e-5	-7.776e-6
-0.128	-3.141e-5	-7.781e-6
-0.156	-3.114e-5	-7.773e-6
-0.184	-3.135e-5	-7.772e-6
-0.212	-3.259e-5	-7.765e-6
-0.240	-3.489e-5	-7.784e-6
-0.268	-3.853e-5	-7.765e-6
-0.296	-4.331e-5	-7.753e-6
-0.324	-4.903e-5	-7.777e-6
-0.352	-5.531e-5	-7.763e-6
-0.380	-6.246e-5	-7.761e-6
-0.408	-6.987e-5	-7.762e-6
-0.436	-7.752e-5	-7.757e-6
-0.464	-8.475e-5	-7.741e-6
-0.492	-9.122e-5	-7.784e-6
-0.520	-9.657e-5	-7.768e-6
-0.548	-1.007e-4	-7.762e-6
-0.576	-1.036e-4	-7.768e-6
-0.596	-8.969e-5	-7.774e-6
-0.568	-5.679e-5	-7.751e-6
-0.540	-3.900e-5	-7.758e-6
-0.512	-2.644e-5	-7.755e-6
-0.484	-1.662e-5	-7.768e-6
-0.456	-8.575e-6	-7.704e-6
-0.428	-1.650e-6	-7.692e-6
-0.400	4.211e-6	-7.682e-6
-0.372	9.359e-6	-7.700e-6
-0.344	1.372e-5	-7.692e-6
-0.316	1.732e-5	-7.701e-6
-0.288	2.034e-5	-7.701e-6
-0.260	2.298e-5	-7.717e-6
-0.232	2.508e-5	-7.711e-6
-0.204	2.693e-5	-7.709e-6
-0.176	2.840e-5	-7.717e-6
-0.148	2.974e-5	-7.724e-6
-0.120	3.129e-5	-7.688e-6
-0.092	3.299e-5	-7.688e-6
-0.064	3.460e-5	-7.695e-6
-0.036	3.671e-5	-7.692e-6
-0.008	3.894e-5	-7.728e-6
0.020	4.161e-5	-7.690e-6
0.048	4.431e-5	-7.686e-6
0.076	4.746e-5	-7.709e-6
0.104	5.059e-5	-7.691e-6
0.132	5.347e-5	-7.698e-6
0.160	5.480e-5	-7.699e-6
0.188	5.310e-5	-7.700e-6
0.216	4.971e-5	-7.705e-6
0.244	4.730e-5	-7.709e-6
0.272	4.613e-5	-7.703e-6
0.300	4.538e-5	-7.709e-6
0.328	4.479e-5	-7.704e-6
0.356	4.410e-5	-7.709e-6
0.384	4.301e-5	-7.703e-6
0.412	4.209e-5	-7.704e-6
0.440	4.112e-5	-7.688e-6
0.468	4.061e-5	-7.692e-6
0.496	4.051e-5	-7.696e-6
0.524	4.097e-5	-7.692e-6
0.552	4.181e-5	-7.697e-6
0.580	4.367e-5	-7.698e-6
0.608	4.635e-5	-7.702e-6
0.636	5.002e-5	-7.709e-6
0.664	5.348e-5	-7.699e-6
0.692	5.671e-5	-7.709e-6
0.720	5.993e-5	-7.713e-6
0.748	6.377e-5	-7.711e-6
0.776	6.822e-5	-7.722e-6
0.804	7.357e-5	-7.686e-6
0.832	8.018e-5	-7.684e-6
0.860	8.836e-5	-7.707e-6
0.888	9.913e-5	-7.707e-6
0.884	3.818e-5	-7.706e-6
0.856	1.503e-5	-7.709e-6
0.828	4.003e-6	-7.711e-6
0.800	-2.655e-6	-7.700e-6
0.772	-7.036e-6	-7.689e-6
0.744	-9.954e-6	-7.786e-6
0.716	-1.219e-5	-7.778e-6
0.688	-1.367e-5	-7.789e-6
0.660	-1.497e-5	-7.784e-6
0.632	-1.603e-5	-7.776e-6
0.604	-1.692e-5	-7.778e-6
0.576	-1.775e-5	-7.767e-6
0.548	-1.862e-5	-7.775e-6
0.520	-1.939e-5	-7.776e-6
0.492	-2.025e-5	-7.777e-6
0.464	-2.105e-5	-7.767e-6
0.436	-2.193e-5	-7.769e-6
0.408	-2.280e-5	-7.767e-6
0.380	-2.340e-5	-7.772e-6
0.352	-2.363e-5	-7.766e-6
0.324	-2.370e-5	-7.773e-6
0.296	-2.396e-5	-7.765e-6
0.268	-2.450e-5	-7.758e-6
0.240	-2.518e-5	-7.763e-6
0.212	-2.600e-5	-7.766e-6
0.184	-2.679e-5	-7.758e-6
0.156	-2.760e-5	-7.761e-6
0.128	-2.837e-5	-7.763e-6
0.100	-2.929e-5	-7.776e-6
0.072	-3.007e-5	-7.769e-6
0.044	-3.095e-5	-7.765e-6
0.016	-3.161e-5	-7.762e-6
-0.012	-3.224e-5	-7.768e-6
-0.040	-3.234e-5	-7.765e-6
-0.068	-3.211e-5	-7.752e-6
-0.096	-3.159e-5	-7.768e-6
-0.124	-3.101e-5	-7.770e-6
-0.152	-3.049e-5	-7.772e-6
-0.180	-3.055e-5	-7.768e-6
-0.208	-3.139e-5	-7.762e-6
-0.236	-3.341e-5	-7.768e-6
-0.264	-3.663e-5	-7.760e-6
-0.292	-4.119e-5	-7.762e-6
-0.320	-4.681e-5	-7.744e-6
-0.348	-5.325e-5	-7.770e-6
-0.376	-6.037e-5	-7.766e-6
-0.404	-6.793e-5	-7.762e-6
-0.432	-7.565e-5	-7.757e-6
-0.460	-8.302e-5	-7.750e-6
-0.488	-8.956e-5	-7.783e-6
-0.516	-9.502e-5	-7.769e-6
-0.544	-9.921e-5	-7.771e-6
-0.572	-1.022e-4	-7.763e-6
-0.599	-1.041e-4	-7.761e-6