File: data/cv/0620/1000 rpm cv.txt
June 20, 2016   17:21:11
Cyclic Voltammetry
File: c:\users\potentio2\desktop\suda\20160620\1000 rpm cv.txt
Data Source:  Experiment
Instrument Model:  CHI7082E
Header:
Note:

Init E (V) = 0
High E (V) = 0.9
Low E (V) = -0.6
Init P/N = P
Scan Rate (V/s) = 0.01
Segment = 6
Sample Interval (V) = 0.001
Quiet Time (sec) = 2
Sensitivity (A/V) = 0.001
Sens 2 (A/V) = 1e-6

Segment 1:

Segment 2:

Segment 3:
Ep = 0.127V
ip = 6.858e-6A
Ah = 6.810e-5C

Segment 4:

Segment 5:
Ep = 0.127V
ip = 4.556e-6A
Ah = 4.718e-5C

Segment 6:

Current 2:

Segment 1:

Segment 2:
Ep = 0.014V
ip = -3.683e-11A
Ah = -1.393e-10C

Segment 3:
Segment 4:
Ep = -0.039V
ip = -2.221e-11A
Ah = -4.340e-11C

Segment 5:
Segment 6:

Potential/V	i1/A	i2/A

0.000	2.215e-5	-7.501e-9
0.028	3.034e-5	-7.573e-9
0.056	3.205e-5	-7.559e-9
0.084	3.358e-5	-7.578e-9
0.112	3.505e-5	-7.588e-9
0.140	3.656e-5	-7.591e-9
0.168	3.837e-5	-7.606e-9
0.196	4.053e-5	-7.609e-9
0.224	4.272e-5	-7.623e-9
0.252	4.375e-5	-7.627e-9
0.280	4.366e-5	-7.632e-9
0.308	4.368e-5	-7.636e-9
0.336	4.363e-5	-7.642e-9
0.364	4.348e-5	-7.640e-9
0.392	4.240e-5	-7.637e-9
0.420	4.115e-5	-7.639e-9
0.448	4.025e-5	-7.642e-9
0.476	3.997e-5	-7.648e-9
0.504	3.996e-5	-7.659e-9
0.532	4.057e-5	-7.654e-9
0.560	4.154e-5	-7.661e-9
0.588	4.354e-5	-7.675e-9
0.616	4.624e-5	-7.663e-9
0.644	4.978e-5	-7.676e-9
0.672	5.340e-5	-7.667e-9
0.700	5.721e-5	-7.685e-9
0.728	6.085e-5	-7.678e-9
0.756	6.470e-5	-7.694e-9
0.784	6.887e-5	-7.700e-9
0.812	7.451e-5	-7.676e-9
0.840	8.192e-5	-7.667e-9
0.868	9.201e-5	-7.679e-9
0.896	1.044e-4	-7.700e-9
0.876	2.799e-5	-7.708e-9
0.848	9.996e-6	-7.710e-9
0.820	9.774e-7	-7.684e-9
0.792	-4.486e-6	-7.689e-9
0.764	-8.250e-6	-7.701e-9
0.736	-1.078e-5	-7.762e-9
0.708	-1.269e-5	-7.764e-9
0.680	-1.398e-5	-7.767e-9
0.652	-1.524e-5	-7.759e-9
0.624	-1.610e-5	-7.757e-9
0.596	-1.705e-5	-7.761e-9
0.568	-1.775e-5	-7.750e-9
0.540	-1.855e-5	-7.759e-9
0.512	-1.929e-5	-7.764e-9
0.484	-1.992e-5	-7.776e-9
0.456	-2.051e-5	-7.769e-9
0.428	-2.113e-5	-7.762e-9
0.400	-2.170e-5	-7.771e-9
0.372	-2.204e-5	-7.766e-9
0.344	-2.232e-5	-7.763e-9
0.316	-2.281e-5	-7.760e-9
0.288	-2.335e-5	-7.754e-9
0.260	-2.401e-5	-7.759e-9
0.232	-2.462e-5	-7.757e-9
0.204	-2.532e-5	-7.753e-9
0.176	-2.587e-5	-7.760e-9
0.148	-2.657e-5	-7.751e-9
0.120	-2.725e-5	-7.753e-9
0.092	-2.802e-5	-7.753e-9
0.064	-2.862e-5	-7.770e-9
0.036	-2.927e-5	-7.778e-9
0.008	-2.963e-5	-7.770e-9
-0.020	-2.986e-5	-7.786e-9
-0.048	-2.965e-5	-7.774e-9
-0.076	-2.949e-5	-7.771e-9
-0.104	-2.892e-5	-7.773e-9
-0.132	-2.846e-5	-7.774e-9
-0.160	-2.819e-5	-7.763e-9
-0.188	-2.874e-5	-7.781e-9
-0.216	-2.992e-5	-7.776e-9
-0.244	-3.226e-5	-7.770e-9
-0.272	-3.538e-5	-7.768e-9
-0.300	-3.957e-5	-7.767e-9
-0.328	-4.484e-5	-7.751e-9
-0.356	-5.139e-5	-7.787e-9
-0.384	-5.896e-5	-7.770e-9
-0.412	-6.712e-5	-7.748e-9
-0.440	-7.545e-5	-7.770e-9
-0.468	-8.337e-5	-7.752e-9
-0.496	-9.011e-5	-7.773e-9
-0.524	-9.536e-5	-7.782e-9
-0.552	-9.880e-5	-7.776e-9
-0.580	-1.008e-4	-7.777e-9
-0.592	-7.959e-5	-7.742e-9
-0.564	-5.245e-5	-7.750e-9
-0.536	-3.669e-5	-7.747e-9
-0.508	-2.531e-5	-7.757e-9
-0.480	-1.624e-5	-7.774e-9
-0.452	-8.784e-6	-7.730e-9
-0.424	-2.414e-6	-7.684e-9
-0.396	3.070e-6	-7.684e-9
-0.368	7.624e-6	-7.714e-9
-0.340	1.156e-5	-7.694e-9
-0.312	1.475e-5	-7.707e-9
-0.284	1.761e-5	-7.701e-9
-0.256	1.989e-5	-7.708e-9
-0.228	2.179e-5	-7.708e-9
-0.200	2.358e-5	-7.711e-9
-0.172	2.524e-5	-7.713e-9
-0.144	2.679e-5	-7.707e-9
-0.116	2.838e-5	-7.716e-9
-0.088	3.007e-5	-7.722e-9
-0.060	3.207e-5	-7.693e-9
-0.032	3.434e-5	-7.698e-9
-0.004	3.663e-5	-7.699e-9
0.024	3.925e-5	-7.697e-9
0.052	4.177e-5	-7.699e-9
0.080	4.443e-5	-7.710e-9
0.108	4.752e-5	-7.712e-9
0.136	4.855e-5	-7.715e-9
0.164	4.670e-5	-7.712e-9
0.192	4.697e-5	-7.706e-9
0.220	4.937e-5	-7.712e-9
0.248	5.182e-5	-7.704e-9
0.276	5.161e-5	-7.692e-9
0.304	4.938e-5	-7.721e-9
0.332	4.761e-5	-7.710e-9
0.360	4.582e-5	-7.698e-9
0.388	4.395e-5	-7.704e-9
0.416	4.241e-5	-7.695e-9
0.444	4.127e-5	-7.701e-9
0.472	4.064e-5	-7.703e-9
0.500	4.058e-5	-7.706e-9
0.528	4.096e-5	-7.697e-9
0.556	4.210e-5	-7.712e-9
0.584	4.369e-5	-7.710e-9
0.612	4.628e-5	-7.713e-9
0.640	4.955e-5	-7.718e-9
0.668	5.336e-5	-7.698e-9
0.696	5.687e-5	-7.710e-9
0.724	6.051e-5	-7.713e-9
0.752	6.435e-5	-7.734e-9
0.780	6.878e-5	-7.724e-9
0.808	7.382e-5	-7.704e-9
0.836	8.007e-5	-7.682e-9
0.864	8.811e-5	-7.709e-9
0.892	9.933e-5	-7.703e-9
0.880	3.234e-5	-7.694e-9
0.852	1.274e-5	-7.716e-9
0.824	2.970e-6	-7.703e-9
0.796	-3.016e-6	-7.695e-9
0.768	-7.093e-6	-7.691e-9
0.740	-9.864e-6	-7.794e-9
0.712	-1.180e-5	-7.789e-9
0.684	-1.345e-5	-7.780e-9
0.656	-1.453e-5	-7.789e-9
0.628	-1.555e-5	-7.781e-9
0.600	-1.640e-5	-7.810e-9
0.572	-1.728e-5	-7.772e-9
0.544	-1.804e-5	-7.773e-9
0.516	-1.881e-5	-7.795e-9
0.488	-1.958e-5	-7.784e-9
0.460	-2.033e-5	-7.777e-9
0.432	-2.095e-5	-7.779e-9
0.404	-2.176e-5	-7.781e-9
0.376	-2.221e-5	-7.769e-9
0.348	-2.249e-5	-7.769e-9
0.320	-2.272e-5	-7.765e-9
0.292	-2.326e-5	-7.769e-9
0.264	-2.383e-5	-7.773e-9
0.236	-2.454e-5	-7.791e-9
0.208	-2.509e-5	-7.771e-9
0.180	-2.578e-5	-7.778e-9
0.152	-2.636e-5	-7.759e-9
0.124	-2.706e-5	-7.765e-9
0.096	-2.777e-5	-7.765e-9
0.068	-2.851e-5	-7.781e-9
0.040	-2.911e-5	-7.785e-9
0.012	-2.957e-5	-7.788e-9
-0.016	-2.982e-5	-7.789e-9
-0.044	-2.980e-5	-7.785e-9
-0.072	-2.942e-5	-7.795e-9
-0.100	-2.890e-5	-7.783e-9
-0.128	-2.829e-5	-7.762e-9
-0.156	-2.791e-5	-7.763e-9
-0.184	-2.795e-5	-7.765e-9
-0.212	-2.875e-5	-7.788e-9
-0.240	-3.037e-5	-7.779e-9
-0.268	-3.310e-5	-7.773e-9
-0.296	-3.661e-5	-7.766e-9
-0.324	-4.139e-5	-7.767e-9
-0.352	-4.734e-5	-7.745e-9
-0.380	-5.453e-5	-7.784e-9
-0.408	-6.237e-5	-7.777e-9
-0.436	-7.072e-5	-7.757e-9
-0.464	-7.867e-5	-7.750e-9
-0.492	-8.577e-5	-7.738e-9
-0.520	-9.133e-5	-7.786e-9
-0.548	-9.521e-5	-7.769e-9
-0.576	-9.756e-5	-7.781e-9
-0.596	-8.361e-5	-7.738e-9
-0.568	-5.294e-5	-7.752e-9
-0.540	-3.660e-5	-7.750e-9
-0.512	-2.501e-5	-7.757e-9
-0.484	-1.586e-5	-7.760e-9
-0.456	-8.253e-6	-7.687e-9
-0.428	-1.837e-6	-7.703e-9
-0.400	3.504e-6	-7.713e-9
-0.372	8.006e-6	-7.712e-9
-0.344	1.179e-5	-7.693e-9
-0.316	1.500e-5	-7.715e-9
-0.288	1.768e-5	-7.674e-9
-0.260	2.011e-5	-7.708e-9
-0.232	2.195e-5	-7.709e-9
-0.204	2.376e-5	-7.712e-9
-0.176	2.531e-5	-7.720e-9
-0.148	2.692e-5	-7.709e-9
-0.120	2.837e-5	-7.712e-9
-0.092	3.028e-5	-7.719e-9
-0.064	3.209e-5	-7.694e-9
-0.036	3.412e-5	-7.695e-9
-0.008	3.620e-5	-7.704e-9
0.020	3.866e-5	-7.707e-9
0.048	4.111e-5	-7.700e-9
0.076	4.369e-5	-7.706e-9
0.104	4.633e-5	-7.706e-9
0.132	4.762e-5	-7.700e-9
0.160	4.590e-5	-7.704e-9
0.188	4.566e-5	-7.697e-9
0.216	4.743e-5	-7.702e-9
0.244	5.021e-5	-7.713e-9
0.272	5.133e-5	-7.700e-9
0.300	4.942e-5	-7.715e-9
0.328	4.734e-5	-7.718e-9
0.356	4.606e-5	-7.706e-9
0.384	4.402e-5	-7.720e-9
0.412	4.227e-5	-7.700e-9
0.440	4.079e-5	-7.697e-9
0.468	4.019e-5	-7.704e-9
0.496	3.995e-5	-7.701e-9
0.524	4.038e-5	-7.700e-9
0.552	4.120e-5	-7.699e-9
0.580	4.274e-5	-7.705e-9
0.608	4.488e-5	-7.704e-9
0.636	4.802e-5	-7.705e-9
0.664	5.151e-5	-7.700e-9
0.692	5.503e-5	-7.707e-9
0.720	5.828e-5	-7.716e-9
0.748	6.186e-5	-7.713e-9
0.776	6.576e-5	-7.718e-9
0.804	7.043e-5	-7.688e-9
0.832	7.604e-5	-7.682e-9
0.860	8.325e-5	-7.693e-9
0.888	9.303e-5	-7.700e-9
0.884	3.454e-5	-7.707e-9
0.856	1.371e-5	-7.711e-9
0.828	3.565e-6	-7.710e-9
0.800	-2.483e-6	-7.715e-9
0.772	-6.654e-6	-7.694e-9
0.744	-9.381e-6	-7.792e-9
0.716	-1.147e-5	-7.790e-9
0.688	-1.301e-5	-7.780e-9
0.660	-1.420e-5	-7.793e-9
0.632	-1.512e-5	-7.781e-9
0.604	-1.605e-5	-7.788e-9
0.576	-1.692e-5	-7.773e-9
0.548	-1.771e-5	-7.777e-9
0.520	-1.845e-5	-7.774e-9
0.492	-1.924e-5	-7.792e-9
0.464	-1.992e-5	-7.783e-9
0.436	-2.067e-5	-7.784e-9
0.408	-2.146e-5	-7.783e-9
0.380	-2.199e-5	-7.779e-9
0.352	-2.225e-5	-7.765e-9
0.324	-2.246e-5	-7.769e-9
0.296	-2.292e-5	-7.763e-9
0.268	-2.354e-5	-7.762e-9
0.240	-2.414e-5	-7.771e-9
0.212	-2.475e-5	-7.772e-9
0.184	-2.538e-5	-7.767e-9
0.156	-2.602e-5	-7.786e-9
0.128	-2.665e-5	-7.768e-9
0.100	-2.743e-5	-7.751e-9
0.072	-2.804e-5	-7.767e-9
0.044	-2.874e-5	-7.780e-9
0.016	-2.917e-5	-7.771e-9
-0.012	-2.955e-5	-7.785e-9
-0.040	-2.953e-5	-7.774e-9
-0.068	-2.924e-5	-7.780e-9
-0.096	-2.868e-5	-7.779e-9
-0.124	-2.809e-5	-7.782e-9
-0.152	-2.754e-5	-7.758e-9
-0.180	-2.742e-5	-7.761e-9
-0.208	-2.795e-5	-7.767e-9
-0.236	-2.942e-5	-7.778e-9
-0.264	-3.181e-5	-7.776e-9
-0.292	-3.529e-5	-7.770e-9
-0.320	-3.984e-5	-7.769e-9
-0.348	-4.579e-5	-7.765e-9
-0.376	-5.277e-5	-7.775e-9
-0.404	-6.071e-5	-7.765e-9
-0.432	-6.899e-5	-7.776e-9
-0.460	-7.718e-5	-7.762e-9
-0.488	-8.440e-5	-7.746e-9
-0.516	-9.029e-5	-7.787e-9
-0.544	-9.439e-5	-7.773e-9
-0.572	-9.699e-5	-7.768e-9
-0.599	-9.830e-5	-7.789e-9