File: data/cv/0620/750 rpm cv.txt
June 20, 2016   16:54:22
Cyclic Voltammetry
File: c:\users\potentio2\desktop\suda\20160620\750 rpm cv.txt
Data Source:  Experiment
Instrument Model:  CHI7082E
Header:
Note:

Init E (V) = 0
High E (V) = 0.9
Low E (V) = -0.6
Init P/N = P
Scan Rate (V/s) = 0.01
Segment = 6
Sample Interval (V) = 0.001
Quiet Time (sec) = 2
Sensitivity (A/V) = 0.001
Sens 2 (A/V) = 1e-6

Segment 1:

Segment 2:

Segment 3:
Ep = 0.151V
ip = 1.112e-5A
Ah = 1.080e-4C

Segment 4:

Segment 5:
Ep = 0.153V
ip = 1.094e-5A
Ah = 1.109e-4C

Segment 6:

Current 2:

Segment 1:

Segment 2:

Segment 3:
Segment 4:
Ep = -0.245V
ip = -1.708e-11A
Ah = -1.633e-11C

Segment 5:
Segment 6:

Potential/V	i1/A	i2/A

0.000	-3.491e-5	-7.631e-9
0.028	1.247e-5	-7.553e-9
0.056	2.103e-5	-7.567e-9
0.084	2.433e-5	-7.589e-9
0.112	2.575e-5	-7.600e-9
0.140	2.654e-5	-7.607e-9
0.168	2.683e-5	-7.618e-9
0.196	2.706e-5	-7.615e-9
0.224	2.721e-5	-7.625e-9
0.252	2.743e-5	-7.632e-9
0.280	2.749e-5	-7.622e-9
0.308	2.763e-5	-7.633e-9
0.336	2.754e-5	-7.633e-9
0.364	2.766e-5	-7.637e-9
0.392	2.757e-5	-7.649e-9
0.420	2.778e-5	-7.642e-9
0.448	2.783e-5	-7.651e-9
0.476	2.818e-5	-7.661e-9
0.504	2.846e-5	-7.661e-9
0.532	2.907e-5	-7.658e-9
0.560	2.971e-5	-7.668e-9
0.588	3.098e-5	-7.644e-9
0.616	3.264e-5	-7.635e-9
0.644	3.472e-5	-7.649e-9
0.672	3.737e-5	-7.650e-9
0.700	4.069e-5	-7.658e-9
0.728	4.441e-5	-7.668e-9
0.756	4.914e-5	-7.680e-9
0.784	5.460e-5	-7.674e-9
0.812	6.190e-5	-7.673e-9
0.840	7.089e-5	-7.633e-9
0.868	8.187e-5	-7.663e-9
0.896	9.428e-5	-7.670e-9
0.876	2.547e-5	-7.691e-9
0.848	9.142e-6	-7.685e-9
0.820	7.777e-7	-7.686e-9
0.792	-4.082e-6	-7.676e-9
0.764	-7.407e-6	-7.665e-9
0.736	-9.478e-6	-7.766e-9
0.708	-1.099e-5	-7.764e-9
0.680	-1.208e-5	-7.763e-9
0.652	-1.295e-5	-7.761e-9
0.624	-1.360e-5	-7.761e-9
0.596	-1.430e-5	-7.766e-9
0.568	-1.482e-5	-7.770e-9
0.540	-1.542e-5	-7.766e-9
0.512	-1.592e-5	-7.768e-9
0.484	-1.638e-5	-7.768e-9
0.456	-1.681e-5	-7.754e-9
0.428	-1.728e-5	-7.752e-9
0.400	-1.770e-5	-7.759e-9
0.372	-1.807e-5	-7.757e-9
0.344	-1.835e-5	-7.759e-9
0.316	-1.888e-5	-7.767e-9
0.288	-1.943e-5	-7.763e-9
0.260	-2.014e-5	-7.767e-9
0.232	-2.082e-5	-7.765e-9
0.204	-2.165e-5	-7.756e-9
0.176	-2.223e-5	-7.754e-9
0.148	-2.305e-5	-7.761e-9
0.120	-2.381e-5	-7.756e-9
0.092	-2.478e-5	-7.759e-9
0.064	-2.565e-5	-7.753e-9
0.036	-2.650e-5	-7.762e-9
0.008	-2.709e-5	-7.750e-9
-0.020	-2.752e-5	-7.755e-9
-0.048	-2.747e-5	-7.744e-9
-0.076	-2.720e-5	-7.754e-9
-0.104	-2.660e-5	-7.749e-9
-0.132	-2.600e-5	-7.756e-9
-0.160	-2.550e-5	-7.754e-9
-0.188	-2.567e-5	-7.750e-9
-0.216	-2.670e-5	-7.747e-9
-0.244	-2.895e-5	-7.765e-9
-0.272	-3.237e-5	-7.768e-9
-0.300	-3.703e-5	-7.760e-9
-0.328	-4.292e-5	-7.746e-9
-0.356	-5.011e-5	-7.768e-9
-0.384	-5.836e-5	-7.760e-9
-0.412	-6.735e-5	-7.738e-9
-0.440	-7.636e-5	-7.743e-9
-0.468	-8.504e-5	-7.724e-9
-0.496	-9.237e-5	-7.762e-9
-0.524	-9.803e-5	-7.768e-9
-0.552	-1.016e-4	-7.756e-9
-0.580	-1.032e-4	-7.759e-9
-0.592	-8.126e-5	-7.715e-9
-0.564	-5.381e-5	-7.745e-9
-0.536	-3.793e-5	-7.749e-9
-0.508	-2.631e-5	-7.747e-9
-0.480	-1.720e-5	-7.748e-9
-0.452	-9.409e-6	-7.755e-9
-0.424	-2.926e-6	-7.690e-9
-0.396	2.540e-6	-7.685e-9
-0.368	7.241e-6	-7.689e-9
-0.340	1.128e-5	-7.681e-9
-0.312	1.447e-5	-7.699e-9
-0.284	1.728e-5	-7.685e-9
-0.256	1.937e-5	-7.694e-9
-0.228	2.099e-5	-7.691e-9
-0.200	2.246e-5	-7.696e-9
-0.172	2.352e-5	-7.689e-9
-0.144	2.465e-5	-7.697e-9
-0.116	2.572e-5	-7.695e-9
-0.088	2.685e-5	-7.698e-9
-0.060	2.825e-5	-7.706e-9
-0.032	2.972e-5	-7.702e-9
-0.004	3.192e-5	-7.682e-9
0.024	3.455e-5	-7.673e-9
0.052	3.765e-5	-7.678e-9
0.080	4.101e-5	-7.689e-9
0.108	4.466e-5	-7.689e-9
0.136	4.716e-5	-7.696e-9
0.164	4.748e-5	-7.697e-9
0.192	4.356e-5	-7.685e-9
0.220	4.070e-5	-7.677e-9
0.248	3.952e-5	-7.692e-9
0.276	3.922e-5	-7.686e-9
0.304	3.893e-5	-7.687e-9
0.332	3.868e-5	-7.693e-9
0.360	3.799e-5	-7.683e-9
0.388	3.728e-5	-7.688e-9
0.416	3.645e-5	-7.673e-9
0.444	3.587e-5	-7.671e-9
0.472	3.560e-5	-7.677e-9
0.500	3.573e-5	-7.689e-9
0.528	3.623e-5	-7.682e-9
0.556	3.741e-5	-7.682e-9
0.584	3.909e-5	-7.682e-9
0.612	4.161e-5	-7.681e-9
0.640	4.479e-5	-7.707e-9
0.668	4.861e-5	-7.710e-9
0.696	5.222e-5	-7.689e-9
0.724	5.555e-5	-7.689e-9
0.752	5.901e-5	-7.694e-9
0.780	6.316e-5	-7.691e-9
0.808	6.799e-5	-7.712e-9
0.836	7.436e-5	-7.665e-9
0.864	8.209e-5	-7.658e-9
0.892	9.271e-5	-7.679e-9
0.880	3.241e-5	-7.681e-9
0.852	1.401e-5	-7.698e-9
0.824	4.737e-6	-7.702e-9
0.796	-1.082e-6	-7.696e-9
0.768	-4.854e-6	-7.689e-9
0.740	-7.437e-6	-7.676e-9
0.712	-9.249e-6	-7.767e-9
0.684	-1.067e-5	-7.766e-9
0.656	-1.165e-5	-7.768e-9
0.628	-1.257e-5	-7.769e-9
0.600	-1.337e-5	-7.765e-9
0.572	-1.419e-5	-7.767e-9
0.544	-1.484e-5	-7.771e-9
0.516	-1.557e-5	-7.768e-9
0.488	-1.631e-5	-7.766e-9
0.460	-1.705e-5	-7.754e-9
0.432	-1.764e-5	-7.753e-9
0.404	-1.840e-5	-7.769e-9
0.376	-1.882e-5	-7.769e-9
0.348	-1.905e-5	-7.761e-9
0.320	-1.922e-5	-7.761e-9
0.292	-1.979e-5	-7.782e-9
0.264	-2.037e-5	-7.763e-9
0.236	-2.111e-5	-7.756e-9
0.208	-2.177e-5	-7.764e-9
0.180	-2.253e-5	-7.759e-9
0.152	-2.318e-5	-7.754e-9
0.124	-2.391e-5	-7.756e-9
0.096	-2.468e-5	-7.747e-9
0.068	-2.542e-5	-7.746e-9
0.040	-2.609e-5	-7.761e-9
0.012	-2.657e-5	-7.748e-9
-0.016	-2.677e-5	-7.747e-9
-0.044	-2.663e-5	-7.768e-9
-0.072	-2.611e-5	-7.758e-9
-0.100	-2.541e-5	-7.756e-9
-0.128	-2.464e-5	-7.755e-9
-0.156	-2.404e-5	-7.758e-9
-0.184	-2.375e-5	-7.757e-9
-0.212	-2.430e-5	-7.762e-9
-0.240	-2.572e-5	-7.750e-9
-0.268	-2.837e-5	-7.760e-9
-0.296	-3.209e-5	-7.755e-9
-0.324	-3.709e-5	-7.747e-9
-0.352	-4.332e-5	-7.749e-9
-0.380	-5.071e-5	-7.767e-9
-0.408	-5.883e-5	-7.766e-9
-0.436	-6.742e-5	-7.745e-9
-0.464	-7.573e-5	-7.730e-9
-0.492	-8.335e-5	-7.738e-9
-0.520	-8.948e-5	-7.776e-9
-0.548	-9.386e-5	-7.771e-9
-0.576	-9.638e-5	-7.757e-9
-0.596	-8.250e-5	-7.713e-9
-0.568	-5.262e-5	-7.737e-9
-0.540	-3.662e-5	-7.731e-9
-0.512	-2.523e-5	-7.750e-9
-0.484	-1.627e-5	-7.750e-9
-0.456	-8.712e-6	-7.706e-9
-0.428	-2.409e-6	-7.687e-9
-0.400	2.996e-6	-7.682e-9
-0.372	7.678e-6	-7.688e-9
-0.344	1.154e-5	-7.680e-9
-0.316	1.478e-5	-7.686e-9
-0.288	1.739e-5	-7.684e-9
-0.260	1.955e-5	-7.694e-9
-0.232	2.122e-5	-7.682e-9
-0.204	2.267e-5	-7.685e-9
-0.176	2.384e-5	-7.696e-9
-0.148	2.499e-5	-7.703e-9
-0.120	2.596e-5	-7.697e-9
-0.092	2.707e-5	-7.693e-9
-0.064	2.831e-5	-7.695e-9
-0.036	3.002e-5	-7.707e-9
-0.008	3.177e-5	-7.675e-9
0.020	3.418e-5	-7.668e-9
0.048	3.692e-5	-7.674e-9
0.076	4.010e-5	-7.695e-9
0.104	4.335e-5	-7.687e-9
0.132	4.619e-5	-7.688e-9
0.160	4.700e-5	-7.690e-9
0.188	4.411e-5	-7.691e-9
0.216	4.065e-5	-7.669e-9
0.244	3.920e-5	-7.683e-9
0.272	3.871e-5	-7.685e-9
0.300	3.863e-5	-7.686e-9
0.328	3.818e-5	-7.688e-9
0.356	3.765e-5	-7.676e-9
0.384	3.685e-5	-7.681e-9
0.412	3.629e-5	-7.691e-9
0.440	3.557e-5	-7.688e-9
0.468	3.533e-5	-7.682e-9
0.496	3.525e-5	-7.679e-9
0.524	3.580e-5	-7.674e-9
0.552	3.670e-5	-7.677e-9
0.580	3.829e-5	-7.679e-9
0.608	4.046e-5	-7.689e-9
0.636	4.358e-5	-7.683e-9
0.664	4.705e-5	-7.697e-9
0.692	5.068e-5	-7.683e-9
0.720	5.404e-5	-7.693e-9
0.748	5.733e-5	-7.694e-9
0.776	6.108e-5	-7.690e-9
0.804	6.562e-5	-7.699e-9
0.832	7.112e-5	-7.667e-9
0.860	7.784e-5	-7.687e-9
0.888	8.684e-5	-7.695e-9
0.884	3.458e-5	-7.700e-9
0.856	1.527e-5	-7.708e-9
0.828	5.506e-6	-7.693e-9
0.800	-3.846e-7	-7.699e-9
0.772	-4.285e-6	-7.688e-9
0.744	-6.989e-6	-7.689e-9
0.716	-8.920e-6	-7.735e-9
0.688	-1.024e-5	-7.771e-9
0.660	-1.134e-5	-7.772e-9
0.632	-1.220e-5	-7.776e-9
0.604	-1.310e-5	-7.771e-9
0.576	-1.381e-5	-7.780e-9
0.548	-1.456e-5	-7.769e-9
0.520	-1.528e-5	-7.764e-9
0.492	-1.605e-5	-7.767e-9
0.464	-1.672e-5	-7.779e-9
0.436	-1.744e-5	-7.768e-9
0.408	-1.818e-5	-7.770e-9
0.380	-1.866e-5	-7.770e-9
0.352	-1.888e-5	-7.769e-9
0.324	-1.910e-5	-7.762e-9
0.296	-1.953e-5	-7.769e-9
0.268	-2.015e-5	-7.760e-9
0.240	-2.081e-5	-7.759e-9
0.212	-2.155e-5	-7.761e-9
0.184	-2.226e-5	-7.765e-9
0.156	-2.297e-5	-7.758e-9
0.128	-2.362e-5	-7.759e-9
0.100	-2.445e-5	-7.762e-9
0.072	-2.510e-5	-7.755e-9
0.044	-2.579e-5	-7.744e-9
0.016	-2.619e-5	-7.746e-9
-0.012	-2.652e-5	-7.753e-9
-0.040	-2.635e-5	-7.742e-9
-0.068	-2.590e-5	-7.756e-9
-0.096	-2.515e-5	-7.745e-9
-0.124	-2.437e-5	-7.760e-9
-0.152	-2.358e-5	-7.767e-9
-0.180	-2.325e-5	-7.758e-9
-0.208	-2.358e-5	-7.760e-9
-0.236	-2.484e-5	-7.769e-9
-0.264	-2.718e-5	-7.752e-9
-0.292	-3.080e-5	-7.769e-9
-0.320	-3.560e-5	-7.759e-9
-0.348	-4.166e-5	-7.755e-9
-0.376	-4.890e-5	-7.774e-9
-0.404	-5.698e-5	-7.752e-9
-0.432	-6.541e-5	-7.748e-9
-0.460	-7.389e-5	-7.742e-9
-0.488	-8.153e-5	-7.732e-9
-0.516	-8.797e-5	-7.766e-9
-0.544	-9.259e-5	-7.765e-9
-0.572	-9.548e-5	-7.769e-9
-0.599	-9.685e-5	-7.761e-9